# Stainless Steel Density=7.93, Angle=90.deg
# Photon Energy (eV), Atten Length (microns)
1.009160854999686990e+03 1.412375673603283310e-01
1.507362899294124645e+03 3.727991207594194001e-01
1.999816277557113381e+03 7.858568943267322249e-01
3.042063791124592626e+03 2.253517175854774734e+00
4.035901832071697754e+03 4.980839743577754497e+00
5.023311373107708278e+03 9.109351897393523245e+00
6.028343902479209646e+03 7.715778545517235187e+00
8.071062178399547520e+03 4.526570969717070625e+00
1.004569985117854776e+04 7.441573085818944833e+00
1.514251525311101977e+04 2.237486155260803855e+01
2.008955408183990949e+04 5.004322963365877541e+01
3.028224848632825888e+04 1.559088493133751285e+02
4.017541726172727795e+04 3.528572266967859719e+02
5.046267831325156294e+04 6.530134278374425776e+02
6.055893344398850604e+04 1.060949278348572307e+03
8.034345339765123208e+04 2.132996299040677968e+03
1.009160854999685980e+05 3.424473999524632291e+03
1.507362899294123054e+05 6.411556751065387289e+03
2.018136304501821287e+05 8.516069233077083481e+03
3.014448862194067915e+05 1.144450583643045138e+04
4.035901832071696990e+05 1.334432745975276339e+04
5.023311373107702821e+05 1.501783208736807319e+04
6.028343902479204116e+05 1.631204219465949427e+04
8.071062178399530239e+05 1.879596834260893957e+04
1.013772705088554067e+06 2.090387929895664274e+04
1.250344542878740001e+06 2.352569893659618174e+04
1.514251525311105186e+06 2.555280228134974823e+04
2.027359157379195094e+06 2.944387079273516429e+04
3.000735545408934820e+06 3.432721207326309377e+04
4.017541726172731258e+06 3.772435245779742399e+04
5.000459348303528503e+06 4.001436804025343736e+04
6.000919788353002630e+06 4.096384076402553910e+04
6.943591429214282893e+06 4.193780979053037299e+04
8.034345339765106328e+06 4.192994260812242283e+04
8.963450975916087627e+06 4.192404318983684789e+04
1.000000000000000000e+07 4.191814460158198199e+04
1.095478757122333907e+07 4.191322974533648085e+04
1.200073707306288555e+07 4.141492959565834462e+04
1.290895506639906764e+07 4.092351335466388264e+04
1.388590716484877095e+07 4.043792810081023345e+04
1.480120349907828309e+07 4.043460913069167873e+04
1.606721458997737803e+07 4.043034228366429306e+04
1.792525516472216696e+07 3.947841934315943945e+04
2.018136304501821473e+07 3.900769410461429652e+04
2.210825450559110940e+07 3.809016033006442012e+04
2.399926934139419347e+07 3.763775340539764875e+04
2.605203087268262729e+07 3.719071983762173477e+04
2.802365337032320723e+07 3.674942671166647779e+04
3.014448862194061652e+07 3.631336982808211906e+04
4.035901832071696967e+07 3.421268921870873601e+04
4.977711281824617088e+07 3.262097821523883613e+04
6.028343902479197085e+07 3.147459929537968492e+04
7.997795533202733099e+07 3.000746020516659337e+04
1.004569985117853731e+08 2.895156860970886555e+04
1.500505610982676148e+08 2.727292074436350595e+04
2.008955408183984756e+08 2.631109145108634766e+04
3.000735545408928394e+08 2.537961148375239281e+04
3.981071705534969568e+08 2.477653399614114096e+04
5.000459348303508162e+08 2.418948876035922149e+04
6.000919788353003263e+08 2.418381671111633841e+04
7.961411998850898743e+08 2.360915403622357917e+04
1.009160854999686956e+09 2.360195752835648818e+04
1.493679517815416574e+09 2.331233505371771753e+04
1.999816277557106972e+09 2.302923672195259132e+04
2.987084613180921078e+09 2.274637545763443268e+04
3.999265143982372761e+09 2.273784219845906409e+04
4.977711281824606895e+09 2.273144435495429207e+04
5.973620431879581451e+09 2.245856004639408275e+04
7.997795533202749252e+09 2.245013476061884285e+04
9.954508046372543335e+09 2.244381787058122063e+04
1.500505610982673264e+10 2.243197849204362865e+04
2.008955408183984756e+10 2.242356317828757892e+04
2.973495781710503387e+10 2.214840092320294207e+04
3.981071705534969330e+10 2.214009199302860361e+04
4.955066700744253540e+10 2.213386234104508549e+04
5.946445265512071991e+10 2.212867230340621245e+04
7.961411998850881958e+10 2.212037077438566121e+04
9.819270134623506165e+10 2.211440597409924885e+04
